#% Generation date: 2019-08-20 14:52:58.3
#% 
#% Original file name: ZTF19aayejww_20190619_P60_v1 
#% JD: 2458653.896657 
#Wavelength(A) Flux(cgs/A) 
3776.700 1.8221e-16 
3802.300 1.0804e-16 
3827.900 2.5225e-16 
3853.400 1.6286e-16 
3879.000 2.3783e-16 
3904.600 1.7849e-16 
3930.100 1.6664e-16 
3955.700 1.3042e-16 
3981.300 2.4178e-16 
4006.800 2.6913e-16 
4032.400 1.7345e-16 
4058.000 1.2452e-16 
4083.600 1.2424e-16 
4109.100 1.2097e-16 
4134.700 1.6424e-16 
4160.300 2.1328e-16 
4185.800 1.6097e-16 
4211.400 1.5800e-16 
4237.000 1.9485e-16 
4262.600 1.8947e-16 
4288.100 1.3751e-16 
4313.700 1.5817e-16 
4339.300 9.8313e-17 
4364.800 1.2715e-16 
4390.400 1.5777e-16 
4416.000 1.6178e-16 
4441.600 1.5863e-16 
4467.100 1.7665e-16 
4492.700 1.4129e-16 
4518.300 2.1185e-16 
4543.800 1.6109e-16 
4569.400 1.2675e-16 
4595.000 1.5457e-16 
4620.500 1.2000e-16 
4646.100 1.4232e-16 
4671.700 1.0684e-16 
4697.300 1.2458e-16 
4722.800 1.4323e-16 
4748.400 1.2155e-16 
4774.000 1.3477e-16 
4799.500 1.1582e-16 
4825.100 1.0564e-16 
4850.700 8.6982e-17 
4876.300 8.8985e-17 
4901.800 9.1904e-17 
4927.400 1.0844e-16 
4953.000 1.0678e-16 
4978.500 1.0072e-16 
5004.100 1.3574e-16 
5029.700 1.3791e-16 
5055.300 1.5479e-16 
5080.800 1.2132e-16 
5106.400 1.2040e-16 
5132.000 1.1033e-16 
5157.500 1.0484e-16 
5183.100 1.1697e-16 
5208.700 1.0838e-16 
5234.200 1.0323e-16 
5259.800 1.1067e-16 
5285.400 1.1617e-16 
5311.000 1.1428e-16 
5336.500 9.6425e-17 
5362.100 9.4364e-17 
5387.700 9.9000e-17 
5413.200 8.4236e-17 
5438.800 1.1119e-16 
5464.400 6.6267e-17 
5490.000 8.6868e-17 
5515.500 9.8943e-17 
5541.100 9.8714e-17 
5566.700 1.0919e-16 
5592.200 9.5337e-17 
5617.800 1.0484e-16 
5643.400 8.0917e-17 
5668.900 9.1961e-17 
5694.500 9.3334e-17 
5720.100 9.5623e-17 
5745.700 8.7097e-17 
5771.200 9.1274e-17 
5796.800 9.3106e-17 
5822.400 8.5552e-17 
5847.900 7.9486e-17 
5873.500 8.4980e-17 
5899.100 9.0530e-17 
5924.700 7.5881e-17 
5950.200 6.2662e-17 
5975.800 6.5180e-17 
6001.400 6.1346e-17 
6026.900 5.8484e-17 
6052.500 6.5637e-17 
6078.100 5.6968e-17 
6103.700 6.8556e-17 
6129.200 6.9300e-17 
6154.800 6.8899e-17 
6180.400 8.0802e-17 
6205.900 7.2962e-17 
6231.500 7.2676e-17 
6257.100 6.8098e-17 
6282.600 7.6110e-17 
6308.200 8.0859e-17 
6333.800 7.6682e-17 
6359.400 7.3248e-17 
6384.900 6.8956e-17 
6410.500 6.5008e-17 
6436.100 7.2390e-17 
6461.600 6.5637e-17 
6487.200 7.1989e-17 
6512.800 7.2333e-17 
6538.400 6.2376e-17 
6563.900 6.7583e-17 
6589.500 6.8785e-17 
6615.100 5.7912e-17 
6640.600 5.1875e-17 
6666.200 5.6281e-17 
6691.800 5.6916e-17 
6717.400 5.8370e-17 
6742.900 5.8141e-17 
6768.500 5.1652e-17 
6794.100 5.4599e-17 
6819.600 5.9056e-17 
6845.200 5.1211e-17 
6870.800 4.6776e-17 
6896.300 4.2490e-17 
6921.900 3.8690e-17 
6947.500 4.2610e-17 
6973.100 4.5156e-17 
6998.600 4.5179e-17 
7024.200 5.0587e-17 
7049.800 5.5280e-17 
7075.300 5.1503e-17 
7100.900 5.0089e-17 
7126.500 5.1972e-17 
7152.100 4.7514e-17 
7177.600 4.1872e-17 
7203.200 4.3377e-17 
7228.800 4.4888e-17 
7254.300 5.3334e-17 
7279.900 5.0770e-17 
7305.500 4.1986e-17 
7331.100 3.7563e-17 
7356.600 3.8707e-17 
7382.200 4.0659e-17 
7407.800 4.1214e-17 
7433.300 4.1614e-17 
7458.900 4.3909e-17 
7484.500 5.2081e-17 
7510.000 5.6550e-17 
7535.600 4.7537e-17 
7561.200 3.8816e-17 
7586.800 4.0578e-17 
7612.300 4.5517e-17 
7637.900 5.0742e-17 
7663.500 4.4773e-17 
7689.000 4.2616e-17 
7714.600 5.0736e-17 
7740.200 4.8092e-17 
7765.800 4.3692e-17 
7791.300 4.8910e-17 
7816.900 5.2235e-17 
7842.500 4.7285e-17 
7868.000 4.0716e-17 
7893.600 3.2784e-17 
7919.200 3.2412e-17 
7944.700 3.5634e-17 
7970.300 3.2075e-17 
7995.900 3.2567e-17 
8021.500 3.0238e-17 
8047.000 2.5614e-17 
8072.600 2.8286e-17 
8098.200 3.2252e-17 
8123.700 3.2052e-17 
8149.300 2.6930e-17 
8174.900 2.1356e-17 
8200.500 2.0595e-17 
8226.000 2.0023e-17 
8251.600 2.2106e-17 
8277.200 3.4272e-17 
8302.700 3.8770e-17 
8328.300 3.4432e-17 
8353.900 3.6865e-17 
8379.500 3.5377e-17 
8405.000 2.8864e-17 
8430.600 2.9111e-17 
8456.200 3.3523e-17 
8481.700 3.1915e-17 
8507.300 2.6232e-17 
8532.900 2.6850e-17 
8558.400 2.7789e-17 
8584.000 3.2006e-17 
8609.600 3.5915e-17 
8635.200 3.9960e-17 
8660.700 3.3236e-17 
8686.300 2.6999e-17 
8711.900 2.6890e-17 
8737.400 2.7743e-17 
8763.000 2.9093e-17 
8788.600 3.2212e-17 
8814.200 3.3139e-17 
8839.700 2.7371e-17 
8865.300 2.1900e-17 
8890.900 2.0115e-17 
8916.400 1.8890e-17 
8942.000 2.0241e-17 
8967.600 2.2169e-17 
8993.200 1.8226e-17 
9018.700 2.0206e-17 
9044.300 2.3428e-17 
9069.900 1.7585e-17 
9095.400 1.7454e-17 
9121.000 2.2650e-17 
9146.600 2.2907e-17 
9172.100 2.0304e-17 
9197.700 1.9148e-17 
9223.300 2.4487e-17 
